9/30/2019 1:38:29 PM           Page 1 of 12

NIVA




                 1.0


                 0.8


                 0.6
          Abs




                 0.4


                 0.2


                 0.0

                   200                        400              600     800
                                                     Wavelength (nm)



Scan Analysis Report
Report Time : Mon 30 Sep 01:35:37 PM 2019
Method: H:\1000 sjøer UV-spek\UV-scan uten autosampler metode.MSW
Batch: H:\1000 sjøer UV-spek\190930_run-2.DSW
Software version: 4.20(468)
Operator:


Zero Report
   Read    Abs(900.00)
_______________________
Zero           -0.0034


Sample Name: Baseline 100%T
Collection Time                   9/30/2019 11:13:56 AM


Peak Table
Peak Style                        Peaks
Peak Threshold                    0.0100
Range                             900.00nm to 200.00nm

Wavelength (nm)     Abs
____________________________
    897.60            0.014
    895.20            0.019
    892.00            0.019
9/30/2019 1:38:29 PM           Page 2 of 12

    343.20          -0.002

X-Y Pairs Table
Data Interval                     10.00

Wavelength (nm)     Abs          Wavelength (nm)     Abs          Wavelength (nm)     Abs
______________________________________________________________________________________________
    900.00            0.011          660.00            0.006          420.00            0.001
    890.00            0.015          650.00            0.006          410.00            0.001
    880.00            0.010          640.00            0.006          400.00            0.000
    870.00            0.012          630.00            0.005          390.00           -0.001
    860.00            0.009          620.00            0.005          380.00           -0.002
    850.00            0.009          610.00            0.004          370.00           -0.004
    840.00            0.008          600.00            0.005          360.00           -0.007
    830.00            0.008          590.00            0.005          350.00           -0.011
    820.00            0.008          580.00            0.004          340.00           -0.002
    810.00            0.008          570.00            0.004          330.00           -0.004
    800.00            0.008          560.00            0.004          320.00           -0.004
    790.00            0.007          550.00            0.004          310.00           -0.005
    780.00            0.008          540.00            0.004          300.00           -0.005
    770.00            0.007          530.00            0.004          290.00           -0.007
    760.00            0.008          520.00            0.003          280.00           -0.008
    750.00            0.008          510.00            0.003          270.00           -0.009
    740.00            0.008          500.00            0.003          260.00           -0.010
    730.00            0.008          490.00            0.003          250.00           -0.012
    720.00            0.007          480.00            0.003          240.00           -0.015
    710.00            0.006          470.00            0.003          230.00           -0.018
    700.00            0.005          460.00            0.002          220.00           -0.020
    690.00            0.005          450.00            0.002          210.00           -0.023
    680.00            0.006          440.00            0.002          200.00           -0.026
    670.00            0.006          430.00            0.002


Sample Name: Blank1
Collection Time                   9/30/2019 11:17:07 AM


Peak Table
Peak Style                        Peaks
Peak Threshold                    0.0100
Range                             900.00nm to 200.00nm

Wavelength (nm)     Abs
____________________________
    899.20            0.013
    896.80            0.013
    892.80            0.011
    891.20            0.004
    882.40            0.008
    875.20            0.007

X-Y Pairs Table
Data Interval                     10.00

Wavelength (nm)     Abs          Wavelength (nm)     Abs          Wavelength (nm)     Abs
______________________________________________________________________________________________
    900.00           -0.003          660.00            0.000          420.00            0.000
    890.00           -0.006          650.00            0.000          410.00            0.000
    880.00            0.001          640.00            0.000          400.00            0.000
    870.00           -0.001          630.00            0.000          390.00            0.000
    860.00            0.000          620.00            0.000          380.00            0.000
    850.00           -0.001          610.00            0.000          370.00            0.000
    840.00           -0.001          600.00            0.000          360.00            0.001
    830.00           -0.001          590.00            0.000          350.00            0.001
    820.00            0.000          580.00            0.000          340.00            0.000
    810.00            0.000          570.00            0.000          330.00            0.000
    800.00            0.001          560.00            0.000          320.00            0.000
    790.00            0.000          550.00            0.000          310.00            0.000
    780.00            0.000          540.00            0.000          300.00            0.000
    770.00            0.000          530.00            0.000          290.00            0.001
    760.00            0.000          520.00            0.000          280.00            0.000
    750.00            0.000          510.00            0.000          270.00            0.000
    740.00            0.000          500.00            0.000          260.00            0.000
    730.00            0.000          490.00            0.000          250.00            0.000
    720.00            0.000          480.00            0.000          240.00            0.000
    710.00            0.000          470.00            0.000          230.00            0.000
    700.00           -0.001          460.00            0.000          220.00            0.000
    690.00            0.000          450.00            0.000          210.00            0.000
    680.00            0.000          440.00            0.000          200.00            0.000
    670.00            0.000          430.00            0.000
9/30/2019 1:38:29 PM           Page 3 of 12



Sample Name: 19-11188
Collection Time                   9/30/2019 11:29:31 AM


Peak Table
Peak Style                        Peaks
Peak Threshold                    0.0100
Range                             900.00nm to 200.00nm

Wavelength (nm)     Abs
____________________________
    899.20            0.019
    896.80            0.013
    893.60            0.001

X-Y Pairs Table
Data Interval                     10.00

Wavelength (nm)     Abs          Wavelength (nm)     Abs          Wavelength (nm)     Abs
______________________________________________________________________________________________
    900.00           -0.010          660.00            0.001          420.00            0.016
    890.00           -0.003          650.00            0.001          410.00            0.019
    880.00            0.001          640.00            0.001          400.00            0.023
    870.00           -0.002          630.00            0.001          390.00            0.028
    860.00            0.001          620.00            0.001          380.00            0.033
    850.00           -0.001          610.00            0.001          370.00            0.040
    840.00            0.001          600.00            0.001          360.00            0.048
    830.00           -0.001          590.00            0.001          350.00            0.057
    820.00            0.000          580.00            0.002          340.00            0.066
    810.00            0.000          570.00            0.002          330.00            0.078
    800.00           -0.001          560.00            0.002          320.00            0.091
    790.00            0.000          550.00            0.002          310.00            0.106
    780.00            0.000          540.00            0.002          300.00            0.124
    770.00            0.000          530.00            0.003          290.00            0.144
    760.00            0.001          520.00            0.004          280.00            0.168
    750.00            0.000          510.00            0.004          270.00            0.192
    740.00            0.000          500.00            0.004          260.00            0.211
    730.00            0.000          490.00            0.005          250.00            0.226
    720.00            0.000          480.00            0.006          240.00            0.247
    710.00            0.000          470.00            0.007          230.00            0.280
    700.00            0.000          460.00            0.008          220.00            0.320
    690.00            0.001          450.00            0.009          210.00            0.368
    680.00            0.000          440.00            0.011          200.00            0.414
    670.00            0.000          430.00            0.013


Sample Name: 19-11392
Collection Time                   9/30/2019 11:38:16 AM


Peak Table
Peak Style                        Peaks
Peak Threshold                    0.0100
Range                             900.00nm to 200.00nm

Wavelength (nm)     Abs
____________________________
    899.20            0.006
    896.80            0.016
    893.60            0.005
    880.80            0.005

X-Y Pairs Table
Data Interval                     10.00

Wavelength (nm)     Abs          Wavelength (nm)     Abs          Wavelength (nm)     Abs
______________________________________________________________________________________________
    900.00           -0.006          660.00            0.001          420.00            0.006
    890.00           -0.004          650.00            0.001          410.00            0.007
    880.00            0.001          640.00            0.001          400.00            0.008
    870.00            0.001          630.00            0.001          390.00            0.010
    860.00            0.001          620.00            0.001          380.00            0.012
    850.00            0.000          610.00            0.001          370.00            0.014
    840.00            0.002          600.00            0.001          360.00            0.017
    830.00            0.001          590.00            0.001          350.00            0.020
    820.00            0.000          580.00            0.001          340.00            0.023
    810.00            0.000          570.00            0.001          330.00            0.028
9/30/2019 1:38:29 PM           Page 4 of 12

    800.00            0.000               560.00          0.002       320.00            0.031
    790.00            0.002               550.00          0.001       310.00            0.038
    780.00            0.000               540.00          0.002       300.00            0.043
    770.00            0.001               530.00          0.002       290.00            0.051
    760.00            0.000               520.00          0.002       280.00            0.060
    750.00            0.000               510.00          0.002       270.00            0.070
    740.00            0.001               500.00          0.002       260.00            0.080
    730.00            0.000               490.00          0.003       250.00            0.087
    720.00            0.001               480.00          0.003       240.00            0.096
    710.00            0.001               470.00          0.003       230.00            0.111
    700.00            0.000               460.00          0.004       220.00            0.129
    690.00            0.001               450.00          0.004       210.00            0.156
    680.00            0.001               440.00          0.005       200.00            0.198
    670.00            0.001               430.00          0.005


Sample Name: 19-11186
Collection Time                   9/30/2019 12:00:46 PM


Peak Table
Peak Style                        Peaks
Peak Threshold                    0.0100
Range                             900.00nm to 200.00nm

Wavelength (nm)     Abs
____________________________
    899.20            0.015
    896.80            0.016
    883.20            0.006

X-Y Pairs Table
Data Interval                     10.00

Wavelength (nm)     Abs          Wavelength (nm)     Abs          Wavelength (nm)     Abs
______________________________________________________________________________________________
    900.00           -0.001          660.00            0.001          420.00            0.011
    890.00           -0.004          650.00            0.001          410.00            0.013
    880.00            0.001          640.00            0.001          400.00            0.015
    870.00            0.001          630.00            0.002          390.00            0.018
    860.00            0.001          620.00            0.002          380.00            0.021
    850.00           -0.001          610.00            0.001          370.00            0.025
    840.00           -0.001          600.00            0.001          360.00            0.030
    830.00            0.001          590.00            0.002          350.00            0.035
    820.00            0.001          580.00            0.002          340.00            0.040
    810.00            0.000          570.00            0.002          330.00            0.048
    800.00            0.001          560.00            0.002          320.00            0.055
    790.00            0.001          550.00            0.002          310.00            0.065
    780.00            0.000          540.00            0.003          300.00            0.075
    770.00            0.001          530.00            0.003          290.00            0.088
    760.00            0.001          520.00            0.003          280.00            0.102
    750.00            0.001          510.00            0.004          270.00            0.117
    740.00            0.000          500.00            0.004          260.00            0.129
    730.00            0.000          490.00            0.004          250.00            0.140
    720.00            0.001          480.00            0.005          240.00            0.154
    710.00            0.001          470.00            0.005          230.00            0.177
    700.00            0.001          460.00            0.006          220.00            0.205
    690.00            0.001          450.00            0.007          210.00            0.242
    680.00            0.001          440.00            0.008          200.00            0.289
    670.00            0.001          430.00            0.009


Sample Name: 19-11339
Collection Time                   9/30/2019 12:10:14 PM


Peak Table
Peak Style                        Peaks
Peak Threshold                    0.0100
Range                             900.00nm to 200.00nm

Wavelength (nm)     Abs
____________________________
    899.20            0.021
    896.80            0.016
    892.80            0.005
    881.60            0.009

X-Y Pairs Table
9/30/2019 1:38:29 PM           Page 5 of 12

Data Interval                     10.00

Wavelength (nm)     Abs          Wavelength (nm)     Abs          Wavelength (nm)     Abs
______________________________________________________________________________________________
    900.00           -0.015          660.00            0.000          420.00            0.004
    890.00           -0.009          650.00            0.000          410.00            0.005
    880.00            0.001          640.00            0.001          400.00            0.005
    870.00           -0.001          630.00            0.001          390.00            0.006
    860.00            0.003          620.00            0.001          380.00            0.007
    850.00            0.001          610.00            0.001          370.00            0.008
    840.00            0.001          600.00            0.000          360.00            0.010
    830.00            0.000          590.00            0.001          350.00            0.011
    820.00            0.000          580.00            0.001          340.00            0.013
    810.00            0.000          570.00            0.001          330.00            0.015
    800.00           -0.001          560.00            0.001          320.00            0.018
    790.00            0.001          550.00            0.001          310.00            0.021
    780.00            0.000          540.00            0.001          300.00            0.025
    770.00            0.000          530.00            0.001          290.00            0.031
    760.00            0.000          520.00            0.001          280.00            0.037
    750.00            0.000          510.00            0.001          270.00            0.042
    740.00            0.000          500.00            0.001          260.00            0.046
    730.00            0.000          490.00            0.002          250.00            0.050
    720.00            0.000          480.00            0.002          240.00            0.056
    710.00            0.000          470.00            0.002          230.00            0.065
    700.00            0.000          460.00            0.002          220.00            0.077
    690.00            0.000          450.00            0.002          210.00            0.097
    680.00            0.000          440.00            0.002          200.00            0.135
    670.00            0.000          430.00            0.003


Sample Name: 19-11372
Collection Time                   9/30/2019 12:17:23 PM


Peak Table
Peak Style                        Peaks
Peak Threshold                    0.0100
Range                             900.00nm to 200.00nm

Wavelength (nm)     Abs
____________________________
    899.20            0.015
    893.60            0.006
    891.20            0.002
    880.80            0.007

X-Y Pairs Table
Data Interval                     10.00

Wavelength (nm)     Abs          Wavelength (nm)     Abs          Wavelength (nm)     Abs
______________________________________________________________________________________________
    900.00            0.000          660.00            0.001          420.00            0.005
    890.00           -0.009          650.00            0.001          410.00            0.006
    880.00            0.003          640.00            0.001          400.00            0.006
    870.00           -0.003          630.00            0.001          390.00            0.007
    860.00            0.004          620.00            0.001          380.00            0.008
    850.00            0.000          610.00            0.001          370.00            0.010
    840.00            0.001          600.00            0.001          360.00            0.012
    830.00            0.001          590.00            0.001          350.00            0.014
    820.00            0.001          580.00            0.001          340.00            0.015
    810.00            0.001          570.00            0.001          330.00            0.018
    800.00            0.000          560.00            0.001          320.00            0.021
    790.00            0.001          550.00            0.002          310.00            0.024
    780.00            0.000          540.00            0.002          300.00            0.028
    770.00            0.001          530.00            0.002          290.00            0.032
    760.00            0.000          520.00            0.002          280.00            0.038
    750.00            0.000          510.00            0.002          270.00            0.043
    740.00            0.000          500.00            0.002          260.00            0.047
    730.00            0.000          490.00            0.002          250.00            0.051
    720.00            0.001          480.00            0.003          240.00            0.057
    710.00            0.001          470.00            0.003          230.00            0.065
    700.00            0.000          460.00            0.003          220.00            0.076
    690.00            0.001          450.00            0.003          210.00            0.094
    680.00            0.001          440.00            0.003          200.00            0.128
    670.00            0.001          430.00            0.004


Sample Name: 19-11376
Collection Time                   9/30/2019 12:21:02 PM
9/30/2019 1:38:29 PM           Page 6 of 12


Peak Table
Peak Style                        Peaks
Peak Threshold                    0.0100
Range                             900.00nm to 200.00nm

Wavelength (nm)     Abs
____________________________
    896.80            0.020
    892.80            0.009
    889.60            0.005
    882.40            0.008

X-Y Pairs Table
Data Interval                     10.00

Wavelength (nm)     Abs          Wavelength (nm)     Abs          Wavelength (nm)     Abs
______________________________________________________________________________________________
    900.00           -0.014          660.00            0.002          420.00            0.016
    890.00            0.002          650.00            0.002          410.00            0.019
    880.00           -0.002          640.00            0.002          400.00            0.022
    870.00           -0.002          630.00            0.002          390.00            0.026
    860.00            0.002          620.00            0.003          380.00            0.031
    850.00            0.000          610.00            0.003          370.00            0.036
    840.00            0.001          600.00            0.003          360.00            0.044
    830.00            0.001          590.00            0.003          350.00            0.051
    820.00            0.001          580.00            0.003          340.00            0.059
    810.00            0.001          570.00            0.003          330.00            0.070
    800.00            0.002          560.00            0.003          320.00            0.080
    790.00            0.001          550.00            0.004          310.00            0.092
    780.00           -0.001          540.00            0.005          300.00            0.107
    770.00            0.001          530.00            0.005          290.00            0.124
    760.00            0.000          520.00            0.005          280.00            0.145
    750.00            0.001          510.00            0.006          270.00            0.167
    740.00            0.001          500.00            0.006          260.00            0.185
    730.00            0.001          490.00            0.007          250.00            0.199
    720.00            0.002          480.00            0.007          240.00            0.219
    710.00            0.001          470.00            0.008          230.00            0.250
    700.00            0.001          460.00            0.009          220.00            0.286
    690.00            0.001          450.00            0.010          210.00            0.335
    680.00            0.002          440.00            0.012          200.00            0.392
    670.00            0.002          430.00            0.014


Sample Name: 19-11378
Collection Time                   9/30/2019 12:25:05 PM


Peak Table
Peak Style                        Peaks
Peak Threshold                    0.0100
Range                             900.00nm to 200.00nm

Wavelength (nm)     Abs
____________________________
    898.40            0.009
    896.80            0.017
    893.60            0.004
    882.40            0.010

X-Y Pairs Table
Data Interval                     10.00

Wavelength (nm)     Abs          Wavelength (nm)     Abs          Wavelength (nm)     Abs
______________________________________________________________________________________________
    900.00           -0.003          660.00            0.001          420.00            0.011
    890.00           -0.006          650.00            0.001          410.00            0.013
    880.00            0.004          640.00            0.001          400.00            0.015
    870.00           -0.003          630.00            0.001          390.00            0.019
    860.00            0.000          620.00            0.002          380.00            0.022
    850.00            0.000          610.00            0.001          370.00            0.027
    840.00            0.002          600.00            0.001          360.00            0.032
    830.00            0.000          590.00            0.002          350.00            0.037
    820.00            0.001          580.00            0.002          340.00            0.044
    810.00            0.000          570.00            0.002          330.00            0.052
    800.00            0.001          560.00            0.002          320.00            0.061
    790.00            0.000          550.00            0.002          310.00            0.072
    780.00            0.000          540.00            0.003          300.00            0.086
    770.00            0.000          530.00            0.003          290.00            0.102
9/30/2019 1:38:29 PM           Page 7 of 12

    760.00            0.000               520.00          0.003       280.00            0.122
    750.00            0.000               510.00          0.004       270.00            0.141
    740.00            0.000               500.00          0.004       260.00            0.157
    730.00            0.000               490.00          0.004       250.00            0.168
    720.00            0.001               480.00          0.005       240.00            0.184
    710.00            0.000               470.00          0.005       230.00            0.210
    700.00            0.000               460.00          0.006       220.00            0.244
    690.00            0.001               450.00          0.007       210.00            0.294
    680.00            0.001               440.00          0.008       200.00            0.375
    670.00            0.001               430.00          0.010


Sample Name: 19-11379
Collection Time                   9/30/2019 12:34:16 PM


Peak Table
Peak Style                        Peaks
Peak Threshold                    0.0100
Range                             900.00nm to 200.00nm

Wavelength (nm)     Abs
____________________________
    899.20            0.013
    896.80            0.014
    889.60            0.007
    882.40            0.007

X-Y Pairs Table
Data Interval                     10.00

Wavelength (nm)     Abs          Wavelength (nm)     Abs          Wavelength (nm)     Abs
______________________________________________________________________________________________
    900.00           -0.008          660.00            0.004          420.00            0.054
    890.00            0.001          650.00            0.005          410.00            0.063
    880.00            0.000          640.00            0.005          400.00            0.073
    870.00            0.000          630.00            0.006          390.00            0.087
    860.00            0.001          620.00            0.007          380.00            0.101
    850.00            0.001          610.00            0.007          370.00            0.120
    840.00            0.002          600.00            0.007          360.00            0.143
    830.00            0.001          590.00            0.008          350.00            0.169
    820.00            0.002          580.00            0.009          340.00            0.196
    810.00            0.001          570.00            0.010          330.00            0.226
    800.00            0.002          560.00            0.011          320.00            0.261
    790.00            0.002          550.00            0.012          310.00            0.298
    780.00            0.001          540.00            0.013          300.00            0.341
    770.00            0.002          530.00            0.014          290.00            0.388
    760.00            0.001          520.00            0.016          280.00            0.443
    750.00            0.002          510.00            0.018          270.00            0.499
    740.00            0.002          500.00            0.019          260.00            0.547
    730.00            0.002          490.00            0.022          250.00            0.586
    720.00            0.002          480.00            0.024          240.00            0.645
    710.00            0.003          470.00            0.027          230.00            0.734
    700.00            0.003          460.00            0.030          220.00            0.831
    690.00            0.003          450.00            0.035          210.00            0.943
    680.00            0.004          440.00            0.040          200.00            1.054
    670.00            0.004          430.00            0.046


Sample Name: 19-11381
Collection Time                   9/30/2019 12:40:47 PM


Peak Table
Peak Style                        Peaks
Peak Threshold                    0.0100
Range                             900.00nm to 200.00nm

Wavelength (nm)     Abs
____________________________
    896.80            0.019
    893.60            0.004
    880.80            0.005

X-Y Pairs Table
Data Interval                     10.00

Wavelength (nm)     Abs          Wavelength (nm)     Abs          Wavelength (nm)     Abs
______________________________________________________________________________________________
9/30/2019 1:38:29 PM           Page 8 of 12

    900.00          -0.011                660.00          0.003       420.00            0.030
    890.00          -0.002                650.00          0.003       410.00            0.036
    880.00          -0.003                640.00          0.003       400.00            0.042
    870.00          -0.001                630.00          0.004       390.00            0.050
    860.00           0.002                620.00          0.004       380.00            0.059
    850.00           0.001                610.00          0.004       370.00            0.070
    840.00           0.001                600.00          0.004       360.00            0.084
    830.00           0.001                590.00          0.005       350.00            0.099
    820.00           0.002                580.00          0.005       340.00            0.115
    810.00           0.001                570.00          0.006       330.00            0.134
    800.00           0.002                560.00          0.006       320.00            0.155
    790.00           0.001                550.00          0.007       310.00            0.179
    780.00           0.001                540.00          0.008       300.00            0.204
    770.00           0.001                530.00          0.009       290.00            0.235
    760.00           0.001                520.00          0.010       280.00            0.271
    750.00           0.001                510.00          0.011       270.00            0.313
    740.00           0.001                500.00          0.011       260.00            0.351
    730.00           0.001                490.00          0.013       250.00            0.380
    720.00           0.001                480.00          0.014       240.00            0.416
    710.00           0.002                470.00          0.016       230.00            0.473
    700.00           0.002                460.00          0.017       220.00            0.532
    690.00           0.002                450.00          0.020       210.00            0.601
    680.00           0.002                440.00          0.023       200.00            0.685
    670.00           0.003                430.00          0.026


Sample Name: 19-11382
Collection Time                   9/30/2019 12:44:00 PM


Peak Table
Peak Style                        Peaks
Peak Threshold                    0.0100
Range                             900.00nm to 200.00nm

Wavelength (nm)     Abs
____________________________
    899.20            0.013
    892.80            0.008

X-Y Pairs Table
Data Interval                     10.00

Wavelength (nm)     Abs          Wavelength (nm)     Abs          Wavelength (nm)     Abs
______________________________________________________________________________________________
    900.00            0.003          660.00            0.001          420.00            0.010
    890.00           -0.001          650.00            0.001          410.00            0.011
    880.00            0.000          640.00            0.002          400.00            0.013
    870.00            0.000          630.00            0.002          390.00            0.015
    860.00            0.002          620.00            0.002          380.00            0.018
    850.00            0.001          610.00            0.002          370.00            0.021
    840.00            0.001          600.00            0.002          360.00            0.027
    830.00            0.000          590.00            0.002          350.00            0.029
    820.00            0.001          580.00            0.002          340.00            0.035
    810.00            0.001          570.00            0.002          330.00            0.040
    800.00            0.002          560.00            0.002          320.00            0.046
    790.00            0.001          550.00            0.003          310.00            0.054
    780.00            0.000          540.00            0.003          300.00            0.064
    770.00            0.001          530.00            0.003          290.00            0.075
    760.00            0.001          520.00            0.003          280.00            0.088
    750.00            0.001          510.00            0.004          270.00            0.101
    740.00            0.001          500.00            0.004          260.00            0.113
    730.00            0.001          490.00            0.004          250.00            0.123
    720.00            0.001          480.00            0.005          240.00            0.136
    710.00            0.001          470.00            0.005          230.00            0.158
    700.00            0.001          460.00            0.006          220.00            0.185
    690.00            0.001          450.00            0.006          210.00            0.224
    680.00            0.001          440.00            0.007          200.00            0.280
    670.00            0.002          430.00            0.008


Sample Name: 19-11385
Collection Time                   9/30/2019 12:48:10 PM


Peak Table
Peak Style                        Peaks
Peak Threshold                    0.0100
Range                             900.00nm to 200.00nm
9/30/2019 1:38:29 PM           Page 9 of 12


Wavelength (nm)     Abs
____________________________
    898.40            0.016
    893.60            0.006
    881.60            0.008

X-Y Pairs Table
Data Interval                     10.00

Wavelength (nm)     Abs          Wavelength (nm)     Abs          Wavelength (nm)     Abs
______________________________________________________________________________________________
    900.00           -0.011          660.00            0.001          420.00            0.006
    890.00            0.000          650.00            0.001          410.00            0.007
    880.00           -0.002          640.00            0.001          400.00            0.008
    870.00            0.000          630.00            0.001          390.00            0.010
    860.00            0.000          620.00            0.001          380.00            0.012
    850.00            0.001          610.00            0.001          370.00            0.014
    840.00            0.001          600.00            0.001          360.00            0.018
    830.00            0.000          590.00            0.001          350.00            0.020
    820.00            0.001          580.00            0.001          340.00            0.024
    810.00            0.001          570.00            0.001          330.00            0.028
    800.00            0.000          560.00            0.001          320.00            0.033
    790.00            0.001          550.00            0.002          310.00            0.039
    780.00            0.000          540.00            0.002          300.00            0.045
    770.00            0.000          530.00            0.002          290.00            0.055
    760.00            0.000          520.00            0.002          280.00            0.065
    750.00            0.000          510.00            0.002          270.00            0.077
    740.00            0.001          500.00            0.002          260.00            0.085
    730.00            0.000          490.00            0.003          250.00            0.094
    720.00            0.001          480.00            0.003          240.00            0.104
    710.00            0.001          470.00            0.003          230.00            0.123
    700.00            0.001          460.00            0.004          220.00            0.146
    690.00            0.001          450.00            0.004          210.00            0.183
    680.00            0.001          440.00            0.005          200.00            0.244
    670.00            0.001          430.00            0.005


Sample Name: Blank 2
Collection Time                   9/30/2019 12:51:27 PM


Peak Table
Peak Style                        Peaks
Peak Threshold                    0.0100
Range                             900.00nm to 200.00nm

Wavelength (nm)     Abs
____________________________
    899.20            0.016
    896.80            0.011
    882.40            0.006

X-Y Pairs Table
Data Interval                     10.00

Wavelength (nm)     Abs          Wavelength (nm)     Abs          Wavelength (nm)     Abs
______________________________________________________________________________________________
    900.00           -0.003          660.00            0.000          420.00            0.000
    890.00           -0.004          650.00            0.000          410.00            0.000
    880.00            0.002          640.00            0.000          400.00            0.000
    870.00           -0.002          630.00            0.000          390.00            0.000
    860.00            0.001          620.00            0.000          380.00            0.000
    850.00           -0.001          610.00            0.000          370.00            0.000
    840.00            0.001          600.00            0.000          360.00            0.001
    830.00           -0.001          590.00            0.000          350.00            0.000
    820.00            0.000          580.00            0.000          340.00            0.001
    810.00            0.000          570.00            0.000          330.00            0.001
    800.00            0.000          560.00            0.000          320.00            0.000
    790.00            0.000          550.00            0.000          310.00            0.000
    780.00           -0.001          540.00            0.000          300.00            0.001
    770.00            0.001          530.00            0.000          290.00            0.001
    760.00            0.000          520.00            0.000          280.00            0.001
    750.00            0.000          510.00            0.000          270.00            0.001
    740.00            0.000          500.00            0.000          260.00            0.001
    730.00            0.000          490.00            0.000          250.00            0.002
    720.00            0.000          480.00            0.000          240.00            0.001
    710.00            0.000          470.00            0.000          230.00            0.002
    700.00            0.000          460.00            0.000          220.00            0.002
    690.00            0.000          450.00            0.000          210.00            0.003
9/30/2019 1:38:29 PM           Page 10 of 12

    680.00            0.000               440.00          0.000       200.00            0.007
    670.00            0.000               430.00          0.000


Sample Name: 19-11389
Collection Time                   9/30/2019 12:59:41 PM


Peak Table
Peak Style                        Peaks
Peak Threshold                    0.0100
Range                             900.00nm to 200.00nm

Wavelength (nm)     Abs
____________________________
    896.80            0.015
    891.20            0.008

X-Y Pairs Table
Data Interval                     10.00

Wavelength (nm)     Abs          Wavelength (nm)     Abs          Wavelength (nm)     Abs
______________________________________________________________________________________________
    900.00           -0.009          660.00            0.001          420.00            0.006
    890.00           -0.002          650.00            0.000          410.00            0.007
    880.00            0.001          640.00            0.000          400.00            0.007
    870.00           -0.001          630.00            0.001          390.00            0.009
    860.00            0.002          620.00            0.001          380.00            0.011
    850.00            0.001          610.00            0.001          370.00            0.014
    840.00            0.001          600.00            0.000          360.00            0.017
    830.00           -0.001          590.00            0.001          350.00            0.020
    820.00            0.000          580.00            0.001          340.00            0.024
    810.00            0.001          570.00            0.000          330.00            0.028
    800.00            0.000          560.00            0.001          320.00            0.032
    790.00            0.000          550.00            0.001          310.00            0.038
    780.00           -0.001          540.00            0.001          300.00            0.045
    770.00            0.000          530.00            0.001          290.00            0.053
    760.00            0.000          520.00            0.001          280.00            0.064
    750.00            0.000          510.00            0.002          270.00            0.076
    740.00            0.000          500.00            0.002          260.00            0.084
    730.00            0.000          490.00            0.002          250.00            0.092
    720.00            0.000          480.00            0.002          240.00            0.101
    710.00            0.000          470.00            0.002          230.00            0.117
    700.00            0.000          460.00            0.003          220.00            0.137
    690.00            0.000          450.00            0.003          210.00            0.164
    680.00            0.000          440.00            0.004          200.00            0.213
    670.00            0.000          430.00            0.005


Sample Name: 19-11393
Collection Time                   9/30/2019 1:05:56 PM


Peak Table
Peak Style                        Peaks
Peak Threshold                    0.0100
Range                             900.00nm to 200.00nm

Wavelength (nm)     Abs
____________________________
    899.20            0.009
    896.80            0.009
    887.20            0.006
    881.60            0.006

X-Y Pairs Table
Data Interval                     10.00

Wavelength (nm)     Abs          Wavelength (nm)     Abs          Wavelength (nm)     Abs
______________________________________________________________________________________________
    900.00           -0.001          660.00            0.000          420.00            0.007
    890.00           -0.006          650.00            0.000          410.00            0.008
    880.00            0.003          640.00            0.000          400.00            0.010
    870.00           -0.003          630.00            0.001          390.00            0.012
    860.00            0.000          620.00            0.001          380.00            0.014
    850.00            0.001          610.00            0.001          370.00            0.017
    840.00           -0.001          600.00            0.000          360.00            0.021
    830.00            0.001          590.00            0.001          350.00            0.027
    820.00            0.001          580.00            0.001          340.00            0.030
9/30/2019 1:38:29 PM           Page 11 of 12

    810.00           0.000                570.00         0.000        330.00            0.035
    800.00          -0.001                560.00         0.001        320.00            0.043
    790.00           0.000                550.00         0.001        310.00            0.052
    780.00           0.000                540.00         0.001        300.00            0.062
    770.00           0.000                530.00         0.001        290.00            0.076
    760.00          -0.001                520.00         0.001        280.00            0.091
    750.00           0.000                510.00         0.002        270.00            0.108
    740.00           0.000                500.00         0.002        260.00            0.120
    730.00           0.000                490.00         0.002        250.00            0.131
    720.00           0.000                480.00         0.003        240.00            0.145
    710.00           0.000                470.00         0.003        230.00            0.167
    700.00           0.000                460.00         0.004        220.00            0.197
    690.00           0.000                450.00         0.004        210.00            0.241
    680.00           0.000                440.00         0.005        200.00            0.317
    670.00           0.000                430.00         0.006


Sample Name: 19-11394
Collection Time                   9/30/2019 1:09:49 PM


Peak Table
Peak Style                        Peaks
Peak Threshold                    0.0100
Range                             900.00nm to 200.00nm

Wavelength (nm)     Abs
____________________________
    896.80            0.009
    893.60            0.012
    891.20            0.009

X-Y Pairs Table
Data Interval                     10.00

Wavelength (nm)     Abs          Wavelength (nm)     Abs          Wavelength (nm)     Abs
______________________________________________________________________________________________
    900.00           -0.009          660.00            0.000          420.00            0.004
    890.00           -0.008          650.00            0.000          410.00            0.005
    880.00            0.001          640.00            0.000          400.00            0.005
    870.00           -0.001          630.00            0.001          390.00            0.007
    860.00            0.000          620.00            0.001          380.00            0.008
    850.00            0.000          610.00            0.001          370.00            0.009
    840.00            0.001          600.00            0.001          360.00            0.013
    830.00            0.000          590.00            0.001          350.00            0.015
    820.00            0.001          580.00            0.001          340.00            0.016
    810.00            0.000          570.00            0.000          330.00            0.020
    800.00            0.001          560.00            0.001          320.00            0.023
    790.00            0.001          550.00            0.001          310.00            0.028
    780.00           -0.001          540.00            0.001          300.00            0.034
    770.00            0.001          530.00            0.001          290.00            0.041
    760.00            0.000          520.00            0.001          280.00            0.049
    750.00            0.000          510.00            0.001          270.00            0.057
    740.00            0.000          500.00            0.001          260.00            0.065
    730.00            0.000          490.00            0.002          250.00            0.070
    720.00            0.000          480.00            0.002          240.00            0.077
    710.00            0.000          470.00            0.002          230.00            0.088
    700.00            0.000          460.00            0.002          220.00            0.104
    690.00            0.000          450.00            0.002          210.00            0.128
    680.00            0.000          440.00            0.003          200.00            0.181
    670.00            0.001          430.00            0.003


Sample Name: 19-11395
Collection Time                   9/30/2019 1:14:31 PM


Peak Table
Peak Style                        Peaks
Peak Threshold                    0.0100
Range                             900.00nm to 200.00nm

Wavelength (nm)     Abs
____________________________
    899.20            0.020
    896.80            0.018
    893.60            0.008
    881.60            0.008
9/30/2019 1:38:29 PM           Page 12 of 12

X-Y Pairs Table
Data Interval                     10.00

Wavelength (nm)     Abs          Wavelength (nm)     Abs          Wavelength (nm)     Abs
______________________________________________________________________________________________
    900.00           -0.007          660.00            0.002          420.00            0.014
    890.00           -0.004          650.00            0.002          410.00            0.016
    880.00            0.000          640.00            0.002          400.00            0.019
    870.00            0.001          630.00            0.002          390.00            0.023
    860.00            0.000          620.00            0.002          380.00            0.027
    850.00            0.001          610.00            0.002          370.00            0.032
    840.00            0.002          600.00            0.002          360.00            0.039
    830.00            0.001          590.00            0.003          350.00            0.046
    820.00            0.001          580.00            0.003          340.00            0.054
    810.00            0.001          570.00            0.003          330.00            0.063
    800.00            0.002          560.00            0.003          320.00            0.074
    790.00            0.002          550.00            0.003          310.00            0.088
    780.00            0.000          540.00            0.004          300.00            0.104
    770.00            0.002          530.00            0.004          290.00            0.124
    760.00            0.001          520.00            0.004          280.00            0.149
    750.00            0.001          510.00            0.005          270.00            0.173
    740.00            0.001          500.00            0.005          260.00            0.192
    730.00            0.001          490.00            0.006          250.00            0.207
    720.00            0.001          480.00            0.006          240.00            0.229
    710.00            0.001          470.00            0.007          230.00            0.265
    700.00            0.001          460.00            0.008          220.00            0.310
    690.00            0.002          450.00            0.009          210.00            0.374
    680.00            0.002          440.00            0.010          200.00            0.471
    670.00            0.002          430.00            0.012


Sample Name: Blank
Collection Time                   9/30/2019 1:36:01 PM


Peak Table
Peak Style                        Peaks
Peak Threshold                    0.0100
Range                             900.00nm to 200.00nm

Wavelength (nm)     Abs
____________________________
    899.20            0.027
    896.80            0.011
    894.40            0.009
    891.20            0.003

X-Y Pairs Table
Data Interval                     10.00

Wavelength (nm)     Abs          Wavelength (nm)     Abs          Wavelength (nm)     Abs
______________________________________________________________________________________________
    900.00           -0.008          660.00            0.000          420.00            0.000
    890.00           -0.005          650.00            0.000          410.00            0.000
    880.00           -0.001          640.00            0.000          400.00            0.000
    870.00           -0.002          630.00            0.000          390.00            0.000
    860.00            0.001          620.00            0.000          380.00            0.001
    850.00            0.000          610.00            0.000          370.00            0.001
    840.00            0.000          600.00            0.000          360.00            0.002
    830.00            0.001          590.00            0.000          350.00            0.001
    820.00            0.000          580.00            0.000          340.00            0.001
    810.00            0.000          570.00            0.000          330.00            0.001
    800.00            0.001          560.00            0.000          320.00            0.002
    790.00            0.001          550.00            0.000          310.00            0.002
    780.00            0.000          540.00            0.000          300.00            0.001
    770.00            0.000          530.00            0.000          290.00            0.002
    760.00           -0.001          520.00            0.000          280.00            0.002
    750.00            0.000          510.00            0.000          270.00            0.002
    740.00            0.000          500.00            0.000          260.00            0.002
    730.00            0.000          490.00            0.000          250.00            0.002
    720.00            0.000          480.00            0.000          240.00            0.003
    710.00            0.000          470.00            0.000          230.00            0.003
    700.00            0.000          460.00            0.000          220.00            0.003
    690.00            0.000          450.00            0.000          210.00            0.004
    680.00            0.000          440.00            0.000          200.00            0.007
    670.00            0.000          430.00            0.000
